File: data/r-load-data/REK Drying 112015.csv
Tube,Notch placement (temp column.),substrate,Volume to add in mL,total liquid volume,RH Storage,Formulation,Substrate,Drying Time,substrate size (cm^2),coating volume (uL), coated surface area (cm^2),shaker speed,,H2,O2,N2,CO,CO2,Scaled CO,N2 Base,H2,O2,N2,CO,CO2,Scaled CO,N2 Base,
,,,,,,,,,,,,,,,,,,,,340,,,,,,,340,
A,No notch,3MM,4,4.2,11,2,3MM,15,10,200,10,50,A,12429,,355,1317,0,1261.35,,12561,0,348.1,1302.9,41.1,1272.58,,
B,No notch,3MM,4,4.2,11,2,3MM,15,10,200,10,50,B,12269,,313,1190,31,1292.65,,12686.8,0,324.6,1149.3,53.4,1203.83,,
C,No notch,602hh,4,4.12,11,1,602hh,15,10,120,10,50,C,13177,,392,729,223,632.296,,12638.7,0,662.9,176.2,410.5,90.3726,,
D,No notch,602hh,4,4.12,11,1,602hh,15,10,120,10,50,D,12992,,357,1013,113,964.762,,13737.1,0,394.6,715,280.5,616.067,,
E,LN,3MM,4,4.12,11,2,3MM,30,10,200,10,50,E,13202,,347,764,176,748.588,,13417.7,0,461,428.1,287.7,315.735,,
F,LN,3MM,4,4.12,11,2,3MM,30,10,200,10,50,F,13226,,353,730,191,703.116,,14258.2,0,385.1,380.2,315.6,335.674,,
G,LN,602hh,4,4.12,11,1,602hh,30,10,120,10,50,G,12920,,371,815,189,746.9,,13513.9,0,416.8,694.1,277.4,566.204,,
H,LN,602hh,4,4.12,11,1,602hh,30,10,120,10,50,H,11794,,463,979,108,718.92,,12546.6,0,533.1,702.9,183.7,448.295,,
I,RN,3MM,4,4.12,11,2,3MM,60,10,200,10,50,I,13298,,387,610,242,535.917,,13195.4,0,614.5,210.3,386,116.358,,
J,RN,3MM,4,4.12,11,2,3MM,60,10,200,10,50,J,13138,,345,725,186,714.493,,13793.1,0,382,579.3,305.3,515.607,,
K,Rn,602hh,4,4.12,11,1,602hh,60,10,120,10,50,K,12740,,353,847,167,815.807,,13848.7,0,428.6,411.8,384.7,326.673,,
L,Rn,602hh,4,4.12,11,1,602hh,60,10,120,10,50,L,12364,,347,1018,111,997.464,,13412.3,0,386.8,707.7,306.6,622.073,,
M,MN,3MM,4,4.2,11,2,3MM,90,10,200,10,50,M,12712,,362,629,200,590.773,,13308.6,0,484.7,259.2,296.5,181.82,,
N,MN,3MM,4,4.2,11,2,3MM,90,10,200,10,50,N,13152,,357,654,219,622.857,,14381.2,0,438.1,218.3,458.3,169.418,,
O,MN,602hh,4,4.12,11,1,602hh,90,10,120,10,50,O,12424,,342,978,107,972.281,,13369.1,0,380.9,697.5,286.6,622.604,,
P,MN,602hh,4,4.12,11,1,602hh,90,10,120,10,50,P,12121,,334,934,121,950.778,,13191.7,0,441.1,657.4,322.1,506.724,,