File: data/r-load-data/REK Drying 101615.csv
Tube,Notch placement (temp column.),substrate,Volume to add in mL,total liquid volume,Media type,headspace,Drying Time,Storage,Formulation,substrate size (cm^2),coating volume (uL), coated surface area (cm^2),shaker speed,,,H2,O2,N2,CO,CO2,Scaled CO,N2 Base,Average,H2,O2,N2,CO,CO2,Scaled CO,N2 Base,Average,,,,,,,,,,
SYNGAS,,,,,,,,Rh,,,,,,,,,,,,,,340,,,,,,,,340,,,,,,,,,,,
A,No notch,3MM,4,4.2,1YCM (PCG 10/01/15) xtra cys and Na2S,,60 min @ 25in Hg,11,1,10,200,10,50,,A,12125,,318,1046,77,1118.36,,,12960.5,0,329.6,877.3,136.4,904.982,,,,,,,,,,,,
B,No notch,3MM,4,4.2,1YCM (PCG 10/01/15) xtra cys and Na2S,,60 min @ 25in Hg,11,1,10,200,10,50,,B,12122,,307,1184,36,1311.27,,,12476.5,0,312.9,1079.2,59.8,1172.67,,,,,,,,,,,,
C,No notch,3MM,4,4.2,1YCM (PCG 10/01/15) xtra cys and Na2S,,60 min @ 25in Hg,flush,1,10,200,10,50,,C,11975,,321,1183,24,1253.02,,,11986.5,0,311.9,1065.6,63.7,1161.6,,,,,,,,,,,,
D,LN,3MM,4,4.2,1YCM (PCG 10/01/15) xtra cys,,60 min @ 25in Hg,0,2,10,200,10,50,,D,12145,,319,1132,52,1206.52,,,12763.4,0,328.7,923.9,125,955.662,,,,,,,,,,,,
E,LN,3MM,4,4.2,1YCM (PCG 10/01/15) xtra cys,,60 min @ 25in Hg,0,2,10,200,10,50,,E,12380,,328,1025,97,1062.5,,,12470.1,0,348.3,923.4,124,901.395,,,,,,,,,,,,
F ,LN,3MM,4,4.2,1YCM (PCG 10/01/15) xtra cys,,60 min @ 25in Hg,flush,2,10,200,10,50,,F,12488,,318,1177,37,1258.43,,,12363.7,0,319,941.6,91.3,1003.59,,,,,,,,,,,,
G,RN,602hh ,4,4.12,1YCM (PCG 10/01/15) xtra cys and Na2S,,60 min @ 25in Hg,0,3,10,120,10,50,,G,12481,,340,1026,109,1026,,,13154.9,0,360.3,692.6,221,653.578,,,,,,,,,,,,
H,RN,602hh ,4,4.12,1YCM (PCG 10/01/15) xtra cys and Na2S,,60 min @ 25in Hg,0,3,10,120,10,50,,H,12367,,422,832,137,670.332,,,12928.3,0,558.6,329,308.5,200.251,,,,,,,,,,,,
I,RN,602hh ,4,4.12,1YCM (PCG 10/01/15) xtra cys and Na2S,,60 min @ 25in Hg,flush,3,10,120,10,50,,I,12650,,358,844,166,801.564,,,13367.7,0,470.3,267.2,364.1,193.17,,,,,,,,,,,,
J,MD,602hh ,4,4.12,1YCM (PCG 10/01/15) xtra cys,,60 min @ 25in Hg,11,4,10,120,10,50,,J,12508,,339,969,124,971.858,,,13560.4,0,378,544.9,241,490.122,,,,,,,,,,,,
K,MD,602hh ,4,4.12,1YCM (PCG 10/01/15) xtra cys,,60 min @ 25in Hg,11,4,10,120,10,50,,K,11947,,323,1121,70,1180,,,12498.8,0,338.7,886.3,148.6,889.702,,,,,,,,,,,,
L,MD,602hh ,4,4.12,1YCM (PCG 10/01/15) xtra cys,,60 min @ 25in Hg,flush,4,10,120,10,50,,L,12074,,337,1050,92,1059.35,,,12923.8,0,371.5,630.9,237.2,577.405,,,,,,,,,,,,