File: data/split/REK drying 111315.csv
Tube,Notch placement (temp column.),substrate,Volume to add in mL,total liquid volume,RH Storage,Formulation,Drying Time,substrate size (cm^2),coating volume (uL), coated surface area (cm^2),shaker speed,,H2,O2,N2,CO,CO2,Scaled CO,N2 Base,H2,O2,N2,CO,CO2,Scaled CO,N2 Base,
,,,,,,,,,,,,samples assayed,,,,,,,340,,,,,,,340,
A,No notch,602h,4,4.12,11,1,30,10,120,10,50,at 2:30,12770.3,0,340.8,1249.9,49.8,1246.97,,12849.8,0,366,1031.9,115.2,958.596,,
B,No notch,602h,4,4.12,11,1,30,10,120,10,50,,12852.7,0,344.1,1098.4,103,1085.31,,13462.6,0,364.5,745.6,224.2,695.484,,
C,No notch,602h,4,4.12,11,1,60,10,120,10,50,,12271.7,0,335.9,1140.8,66.7,1154.72,,13071.1,0,367.2,836.3,193.3,774.352,,
D,No notch,602h,4,4.12,11,1,90,10,120,10,50,,12865.8,0,349.3,962.2,148,936.582,,13763.2,0,391.3,505.9,302.5,439.576,,
E,LN,602h,4,4.12,11,2,30,10,120,10,50,,12311.1,0,332.8,1129.6,68.3,1154.04,,12679.3,0,347.4,951.2,148.4,930.938,,
F,LN,602h,4,4.12,11,2,30,10,120,10,50,,12675.6,0,343.5,979.3,133.8,969.322,,13400.3,0,366.9,631.6,256.8,585.293,,
G,LN,602h,4,4.12,11,2,60,10,120,10,50,,12401.5,0,334.1,1055.1,89.1,1073.73,,13056.5,0,371.8,710.4,206.9,649.64,,
H,LN,602h,4,4.12,11,2,90,10,120,10,50,,12146,0,353.1,1042.1,105.3,1003.44,,13056.5,0,371.8,710.4,206.9,649.64,,
I,RN,602h,4,4.12,11,3,30,10,120,10,50,,11841,0,325,1183.3,56.7,1237.91,,12185,0,336.7,1055.4,99.5,1065.74,,
J,RN,602h,4,4.12,11,3,60,10,120,10,50,,11981.7,0,325.2,1177.7,47.6,1231.3,,12328.5,0,333.7,1021.1,114.2,1040.38,,
K,Rn,602h,4,4.12,11,3,60,10,120,10,50,,12019.3,0,329.4,1079.7,104.3,1114.44,,12607.9,0,339.6,826.6,175.2,827.574,,
L,Rn,602h,4,4.12,11,3,90,10,120,10,50,,12020.6,0,334.3,1069,89.9,1087.23,,12643.6,0,353.4,793.1,191.9,763.028,,
M,MN,602h,4,4.12,11,4,30,10,120,10,50,,11721.7,0,369.4,873.6,140.8,804.071,,11942.9,0,432.7,587.8,233.5,461.872,,
N,MN,602h,4,4.12,11,4,60,10,120,10,50,,12155.6,0,331.5,912.5,131.7,935.897,,13196.8,0,363.2,596.4,254.5,558.304,,
O,MN,602h,4,4.12,11,4,90,10,120,10,50,,12138.2,0,347.1,795.9,185.6,779.62,,12896.3,0,401.5,504.8,290.5,427.477,,
P,MN,602h,4,4.12,11,4,90,10,120,10,50,,12562.2,0,362.6,765.8,175.3,718.069,,12817.4,0,474.1,386.5,315.6,277.178,,
,,,,,,,,,,,,,,,,,,,,,,,,,,,
,,,,,,,,,,,,,,,,,,,,,,,,,,,
,,,,,,,,total,1920,,,,,,,,,,,,,,,,,,
,,,,,,,,,,,,,,,,,,,,,,,,,958.596,,
,,,,,,,Formulations,,,,,,,,,,,,,,,,,,695.484,,
Drying Notes,,,,,,1mL 1YCM ,#1 ,0.5,,,,,,,,,,,,,,,,,774.352,,
Bottles 3'A-D transferred to oak ridge tube ,,,,,,,400,400,800,,,,,,,,,,,,,,,,439.576,,
"Oak ridge tube centrifuged in Becman at 9:45am at 4C, 5000rpm and for 15min.",,,,,,1mL 1YCM + .02 g/mL trehalose,#2,0.5,,,,,,,,,,,,,,,,,930.938,,
Cell pellet rinsed with 20mL of 1YCM and transferred to smaller oak ridge tube,,,,,,,400,400,800,,,,,,,,,,,,,,,,585.293,,
Tube centrifuged in rotana at10:10 for 15min at 4C and 6000rcf.,,,,,,1mL 1YCM + 0.05,#3,0.5,,,,,,,,,,,,,,,,,649.64,,
Coatings placed in vacuum chamber at 12:05 ,,,,,,,400,400,800,,,,,,,,,,,,,,,,649.64,,
removed coatings from vacuum chamber in batches per experimental design,,,,,,1mL 1YCM + 0.1,#4,0.5,,,,,,,,,,,,,,,,,1065.74,,
All coatings placed in large bottles with 11% RH,,,,,,,400,400,800,,,,,,,,,,,,,,,,1040.38,,
All large bottles flushed with argon at 20psi for 10 minutes,,,,,,,,,,,,,,,,,,,,,,,,,827.574,,
"Bottles placed in anaerobic chamber at 2""40",,,,,,,,,,,,,,,,,,,,,,,,,763.028,,
The humidity sensor placed in the 90 min drying time bottle was from the stock of sensors and all those sensors had already turned pin at the 10% level. ,,,,,,,,,,,,,,,,,,,,,,,,,461.872,,
,,,,,,,,,,,,,,,,,,,,,,,,,558.304,,
Rehydration 11/16,,,,,,,,,,,,,,,,,,,,,,,,,427.477,,
Rehydrated all tubes with 4mL of 1YCM (PCG 10/29/15),,,,,,,,,,,,,,,,,,,,,,,,,277.178,,
All tubes flushed with syngas for 2 minutes at 10psi,,,,,,,,,,,,,,,,,,,,,,,,,,,
All tubes placed in shaker at 2:22pm. ,,,,,,,,,,,,,,,,,,,,,,,,,,,
11/17/15 out of shaker at 2:22 pm. all back into shaker at 250pm,,,,,,,,,,,,,,,,,,,,,,,,,,,
,,,,,,,,,,,,,,,,,,,,,,,,,,,
,,,,,,,,,,,,,,,,,,,,,,,,,,,
,,,,,,,,,,,,,,,,,,,,,,,,,,,
,,,,,,,,,,,,,,,,,,,,,,,,,,,
,,,,,,,,,,,,,,,,,,,,,,,,,,,